Data from HR4C60381__0__14-56-08-570.txt Node

Date: Tue Apr 18 14:56:08 CEST 2023
User: stevengebel
Spectrometer: HR4C6038
Trigger mode: 4
Integration Time (sec): 5.000000E-1
Scans to average: 1
Electric dark correction enabled: true
Nonlinearity correction enabled: false
Boxcar width: 0
XAxis mode: Wavelengths
Number of Pixels in Spectrum: 3648
>>>>>Begin Spectral Data<<<<<
679.61	-435.46
679.642	-435.46
679.675	-435.46
679.708	-434.46
679.741	0.54
679.773	13.54
679.806	-3.46
679.839	10.54
679.871	-11.46
679.904	-52.46
679.937	-11.46
679.97	13.54
680.002	-39.46
680.035	68.54
680.068	14.54
680.1	-52.46
680.133	44.54
680.166	5.54
680.198	-6.46
680.231	55.54
680.264	-24.46
680.296	164.54
680.329	43.54
680.362	48.54
680.394	87.54
680.427	11.54
680.46	12.54
680.492	81.54
680.525	15.54
680.558	-13.46
680.59	-60.46
680.623	96.54
680.656	-7.46
680.688	7.54
680.721	-17.46
680.753	-8.46
680.786	28.54
680.819	28.54
680.851	62.54
680.884	47.54
680.917	111.54
680.949	74.54
680.982	-42.46
681.014	176.54
681.047	44.54
681.08	33.54
681.112	56.54
681.145	34.54
681.177	26.54
681.21	41.54
681.243	-19.46
681.275	11.54
681.308	44.54
681.34	88.54
681.373	-24.46
681.405	4.54
681.438	110.54
681.471	90.54
681.503	66.54
681.536	30.54
681.568	-13.46
681.601	97.54
681.633	12.54
681.666	58.54
681.698	27.54
681.731	-35.46
681.764	32.54
681.796	-3.46
681.829	17.54
681.861	-7.46
681.894	6.54
681.926	66.54
681.959	101.54
681.991	72.54
682.024	66.54
682.056	35.54
682.089	45.54
682.121	42.54
682.154	19.54
682.186	29.54
682.219	76.54
682.251	24.54
682.284	80.54
682.316	43.54
682.349	22.54
682.381	71.54
682.414	42.54
682.446	20.54
682.479	24.54
682.511	27.54
682.544	10.54
682.576	8.54
682.609	46.54
682.641	-24.46
682.674	-16.46
682.706	-22.46
682.738	14.54
682.771	60.54
682.803	-47.46
682.836	15.54
682.868	6.54
682.901	33.54
682.933	17.54
682.966	21.54
682.998	16.54
683.03	67.54
683.063	0.54
683.095	47.54
683.128	-19.46
683.16	32.54
683.193	34.54
683.225	93.54
683.257	60.54
683.29	142.54
683.322	49.54
683.355	131.54
683.387	21.54
683.419	8.54
683.452	45.54
683.484	-15.46
683.517	128.54
683.549	137.54
683.581	22.54
683.614	41.54
683.646	66.54
683.678	99.54
683.711	23.54
683.743	124.54
683.776	111.54
683.808	128.54
683.84	-65.46
683.873	-38.46
683.905	35.54
683.937	12.54
683.97	-10.46
684.002	102.54
684.034	17.54
684.067	83.54
684.099	83.54
684.131	112.54
684.164	66.54
684.196	29.54
684.228	80.54
684.261	72.54
684.293	-3.46
684.325	13.54
684.358	19.54
684.39	89.54
684.422	57.54
684.455	24.54
684.487	-51.46
684.519	51.54
684.551	65.54
684.584	125.54
684.616	37.54
684.648	49.54
684.681	71.54
684.713	36.54
684.745	101.54
684.777	76.54
684.81	79.54
684.842	123.54
684.874	-47.46
684.906	-17.46
684.939	47.54
684.971	104.54
685.003	55.54
685.035	-57.46
685.068	94.54
685.1	147.54
685.132	169.54
685.164	24.54
685.197	60.54
685.229	58.54
685.261	130.54
685.293	17.54
685.326	-3.46
685.358	8.54
685.39	55.54
685.422	12.54
685.455	43.54
685.487	39.54
685.519	41.54
685.551	38.54
685.583	-43.46
685.616	-45.46
685.648	35.54
685.68	52.54
685.712	45.54
685.744	-33.46
685.776	-28.46
685.809	58.54
685.841	50.54
685.873	5.54
685.905	9.54
685.937	25.54
685.97	26.54
686.002	128.54
686.034	87.54
686.066	-20.46
686.098	7.54
686.13	-48.46
686.163	63.54
686.195	69.54
686.227	123.54
686.259	-62.46
686.291	28.54
686.323	3.54
686.355	51.54
686.387	74.54
686.42	91.54
686.452	-63.46
686.484	119.54
686.516	66.54
686.548	-68.46
686.58	27.54
686.612	22.54
686.644	3.54
686.677	-30.46
686.709	34.54
686.741	-1.46
686.773	39.54
686.805	2.54
686.837	36.54
686.869	-20.46
686.901	-4.46
686.933	6.54
686.965	59.54
686.997	83.54
687.03	-4.46
687.062	-0.46
687.094	61.54
687.126	22.54
687.158	125.54
687.19	19.54
687.222	47.54
687.254	67.54
687.286	94.54
687.318	12.54
687.35	17.54
687.382	-23.46
687.414	25.54
687.446	51.54
687.478	40.54
687.51	29.54
687.542	-34.46
687.574	-9.46
687.606	55.54
687.638	24.54
687.67	17.54
687.702	9.54
687.734	51.54
687.766	174.54
687.798	-6.46
687.83	23.54
687.862	20.54
687.894	-101.46
687.926	86.54
687.958	1.54
687.99	-35.46
688.022	22.54
688.054	-19.46
688.086	15.54
688.118	63.54
688.15	-3.46
688.182	53.54
688.214	83.54
688.246	8.54
688.278	76.54
688.31	7.54
688.342	8.54
688.374	-11.46
688.406	-28.46
688.438	121.54
688.47	87.54
688.502	51.54
688.534	-44.46
688.566	-21.46
688.598	-24.46
688.63	99.54
688.662	45.54
688.693	11.54
688.725	38.54
688.757	31.54
688.789	77.54
688.821	49.54
688.853	-39.46
688.885	43.54
688.917	65.54
688.949	84.54
688.981	26.54
689.013	12.54
689.044	24.54
689.076	86.54
689.108	143.54
689.14	70.54
689.172	61.54
689.204	114.54
689.236	-27.46
689.268	28.54
689.3	105.54
689.331	25.54
689.363	41.54
689.395	-35.46
689.427	83.54
689.459	53.54
689.491	5.54
689.523	-0.46
689.554	-66.46
689.586	-21.46
689.618	7.54
689.65	-9.46
689.682	50.54
689.714	33.54
689.745	95.54
689.777	39.54
689.809	20.54
689.841	30.54
689.873	-38.46
689.905	139.54
689.936	6.54
689.968	83.54
690	12.54
690.032	0.54
690.064	7.54
690.095	9.54
690.127	29.54
690.159	-3.46
690.191	45.54
690.223	-42.46
690.254	-12.46
690.286	74.54
690.318	0.54
690.35	-62.46
690.381	79.54
690.413	48.54
690.445	-31.46
690.477	-6.46
690.508	29.54
690.54	73.54
690.572	88.54
690.604	73.54
690.636	33.54
690.667	-19.46
690.699	66.54
690.731	15.54
690.762	-11.46
690.794	55.54
690.826	82.54
690.858	27.54
690.889	-35.46
690.921	64.54
690.953	38.54
690.985	22.54
691.016	-6.46
691.048	82.54
691.08	64.54
691.111	127.54
691.143	61.54
691.175	96.54
691.207	83.54
691.238	41.54
691.27	44.54
691.302	6.54
691.333	16.54
691.365	19.54
691.397	64.54
691.428	92.54
691.46	-2.46
691.492	43.54
691.523	35.54
691.555	75.54
691.587	30.54
691.618	127.54
691.65	119.54
691.682	52.54
691.713	-20.46
691.745	94.54
691.777	1.54
691.808	93.54
691.84	31.54
691.872	76.54
691.903	95.54
691.935	96.54
691.966	73.54
691.998	60.54
692.03	76.54
692.061	-41.46
692.093	72.54
692.125	121.54
692.156	195.54
692.188	179.54
692.219	84.54
692.251	92.54
692.283	-3.46
692.314	59.54
692.346	197.54
692.377	130.54
692.409	178.54
692.441	162.54
692.472	279.54
692.504	210.54
692.535	258.54
692.567	202.54
692.598	344.54
692.63	309.54
692.662	373.54
692.693	396.54
692.725	437.54
692.756	582.54
692.788	449.54
692.819	485.54
692.851	438.54
692.882	444.54
692.914	507.54
692.946	730.54
692.977	639.54
693.009	483.54
693.04	496.54
693.072	492.54
693.103	460.54
693.135	427.54
693.166	313.54
693.198	324.54
693.229	331.54
693.261	258.54
693.292	169.54
693.324	339.54
693.355	228.54
693.387	416.54
693.418	203.54
693.45	234.54
693.481	229.54
693.513	149.54
693.544	170.54
693.576	169.54
693.607	205.54
693.639	223.54
693.67	232.54
693.702	193.54
693.733	218.54
693.765	235.54
693.796	270.54
693.827	274.54
693.859	385.54
693.89	403.54
693.922	383.54
693.953	471.54
693.985	463.54
694.016	603.54
694.048	468.54
694.079	492.54
694.111	517.54
694.142	626.54
694.173	626.54
694.205	698.54
694.236	732.54
694.268	767.54
694.299	816.54
694.33	893.54
694.362	884.54
694.393	898.54
694.425	745.54
694.456	669.54
694.487	717.54
694.519	704.54
694.55	697.54
694.582	631.54
694.613	568.54
694.644	550.54
694.676	435.54
694.707	445.54
694.739	314.54
694.77	464.54
694.801	536.54
694.833	386.54
694.864	263.54
694.895	229.54
694.927	268.54
694.958	286.54
694.989	304.54
695.021	303.54
695.052	193.54
695.084	238.54
695.115	176.54
695.146	225.54
695.178	118.54
695.209	195.54
695.24	152.54
695.272	117.54
695.303	134.54
695.334	171.54
695.365	168.54
695.397	141.54
695.428	124.54
695.459	105.54
695.491	77.54
695.522	167.54
695.553	119.54
695.585	176.54
695.616	135.54
695.647	117.54
695.679	124.54
695.71	112.54
695.741	120.54
695.772	150.54
695.804	145.54
695.835	32.54
695.866	13.54
695.897	54.54
695.929	80.54
695.96	95.54
695.991	124.54
696.023	58.54
696.054	4.54
696.085	104.54
696.116	114.54
696.148	122.54
696.179	24.54
696.21	97.54
696.241	61.54
696.272	75.54
696.304	-23.46
696.335	108.54
696.366	129.54
696.397	76.54
696.429	132.54
696.46	85.54
696.491	147.54
696.522	66.54
696.553	56.54
696.585	6.54
696.616	72.54
696.647	175.54
696.678	17.54
696.709	87.54
696.741	66.54
696.772	66.54
696.803	111.54
696.834	63.54
696.865	123.54
696.897	59.54
696.928	89.54
696.959	76.54
696.99	57.54
697.021	111.54
697.052	124.54
697.084	112.54
697.115	120.54
697.146	310.54
697.177	138.54
697.208	17.54
697.239	73.54
697.27	77.54
697.302	115.54
697.333	68.54
697.364	36.54
697.395	33.54
697.426	78.54
697.457	88.54
697.488	61.54
697.519	39.54
697.551	31.54
697.582	36.54
697.613	77.54
697.644	58.54
697.675	-2.46
697.706	86.54
697.737	146.54
697.768	108.54
697.799	42.54
697.831	68.54
697.862	43.54
697.893	3.54
697.924	-26.46
697.955	119.54
697.986	128.54
698.017	114.54
698.048	57.54
698.079	55.54
698.11	88.54
698.141	-4.46
698.172	139.54
698.203	59.54
698.234	9.54
698.265	54.54
698.297	30.54
698.328	58.54
698.359	73.54
698.39	40.54
698.421	64.54
698.452	24.54
698.483	144.54
698.514	62.54
698.545	90.54
698.576	19.54
698.607	183.54
698.638	90.54
698.669	86.54
698.7	-31.46
698.731	57.54
698.762	106.54
698.793	-12.46
698.824	88.54
698.855	52.54
698.886	79.54
698.917	100.54
698.948	23.54
698.979	9.54
699.01	84.54
699.041	85.54
699.072	41.54
699.103	-34.46
699.134	66.54
699.165	112.54
699.196	93.54
699.227	59.54
699.258	31.54
699.289	48.54
699.319	29.54
699.35	95.54
699.381	112.54
699.412	18.54
699.443	57.54
699.474	75.54
699.505	75.54
699.536	119.54
699.567	51.54
699.598	22.54
699.629	105.54
699.66	8.54
699.691	76.54
699.722	51.54
699.752	56.54
699.783	17.54
699.814	46.54
699.845	141.54
699.876	128.54
699.907	66.54
699.938	-6.46
699.969	86.54
700	55.54
700.031	28.54
700.061	46.54
700.092	78.54
700.123	-20.46
700.154	0.54
700.185	130.54
700.216	119.54
700.247	71.54
700.278	23.54
700.308	126.54
700.339	72.54
700.37	66.54
700.401	20.54
700.432	32.54
700.463	53.54
700.493	3.54
700.524	112.54
700.555	72.54
700.586	85.54
700.617	149.54
700.648	73.54
700.678	66.54
700.709	42.54
700.74	67.54
700.771	13.54
700.802	60.54
700.833	54.54
700.863	76.54
700.894	120.54
700.925	-27.46
700.956	49.54
700.987	70.54
701.017	98.54
701.048	66.54
701.079	66.54
701.11	114.54
701.14	109.54
701.171	88.54
701.202	49.54
701.233	64.54
701.264	84.54
701.294	68.54
701.325	-2.46
701.356	209.54
701.387	74.54
701.417	38.54
701.448	24.54
701.479	27.54
701.51	12.54
701.54	42.54
701.571	114.54
701.602	27.54
701.633	55.54
701.663	39.54
701.694	115.54
701.725	19.54
701.755	1.54
701.786	52.54
701.817	21.54
701.848	60.54
701.878	66.54
701.909	94.54
701.94	90.54
701.97	55.54
702.001	24.54
702.032	27.54
702.063	104.54
702.093	62.54
702.124	64.54
702.155	23.54
702.185	134.54
702.216	140.54
702.247	48.54
702.277	56.54
702.308	54.54
702.339	119.54
702.369	94.54
702.4	60.54
702.431	39.54
702.461	8.54
702.492	64.54
702.523	-2.46
702.553	56.54
702.584	111.54
702.615	-7.46
702.645	37.54
702.676	25.54
702.706	-1.46
702.737	63.54
702.768	95.54
702.798	140.54
702.829	60.54
702.86	-33.46
702.89	-50.46
702.921	77.54
702.951	79.54
702.982	59.54
703.013	34.54
703.043	168.54
703.074	146.54
703.104	34.54
703.135	61.54
703.166	102.54
703.196	121.54
703.227	133.54
703.257	96.54
703.288	74.54
703.318	143.54
703.349	2.54
703.38	14.54
703.41	49.54
703.441	39.54
703.471	0.54
703.502	35.54
703.532	85.54
703.563	47.54
703.593	51.54
703.624	11.54
703.655	53.54
703.685	77.54
703.716	95.54
703.746	94.54
703.777	80.54
703.807	-13.46
703.838	36.54
703.868	68.54
703.899	87.54
703.929	25.54
703.96	67.54
703.99	141.54
704.021	68.54
704.051	58.54
704.082	19.54
704.112	33.54
704.143	46.54
704.173	54.54
704.204	81.54
704.234	117.54
704.265	31.54
704.295	111.54
704.326	56.54
704.356	69.54
704.387	124.54
704.417	85.54
704.448	-36.46
704.478	60.54
704.509	47.54
704.539	20.54
704.57	102.54
704.6	53.54
704.63	40.54
704.661	-20.46
704.691	12.54
704.722	-8.46
704.752	0.54
704.783	33.54
704.813	-8.46
704.843	78.54
704.874	59.54
704.904	35.54
704.935	58.54
704.965	27.54
704.996	139.54
705.026	69.54
705.056	-8.46
705.087	119.54
705.117	73.54
705.148	141.54
705.178	63.54
705.208	83.54
705.239	66.54
705.269	95.54
705.3	121.54
705.33	80.54
705.36	83.54
705.391	36.54
705.421	37.54
705.451	56.54
705.482	87.54
705.512	92.54
705.543	51.54
705.573	139.54
705.603	103.54
705.634	47.54
705.664	16.54
705.694	-4.46
705.725	96.54
705.755	43.54
705.785	66.54
705.816	34.54
705.846	25.54
705.876	-42.46
705.907	51.54
705.937	-33.46
705.967	90.54
705.998	82.54
706.028	8.54
706.058	65.54
706.089	85.54
706.119	122.54
706.149	7.54
706.179	72.54
706.21	51.54
706.24	54.54
706.27	82.54
706.301	62.54
706.331	57.54
706.361	74.54
706.391	31.54
706.422	42.54
706.452	48.54
706.482	-12.46
706.513	23.54
706.543	56.54
706.573	-9.46
706.603	75.54
706.634	85.54
706.664	-27.46
706.694	23.54
706.724	138.54
706.755	138.54
706.785	26.54
706.815	110.54
706.845	125.54
706.876	77.54
706.906	73.54
706.936	42.54
706.966	121.54
706.996	121.54
707.027	41.54
707.057	63.54
707.087	137.54
707.117	62.54
707.148	2.54
707.178	-8.46
707.208	85.54
707.238	28.54
707.268	51.54
707.299	164.54
707.329	92.54
707.359	130.54
707.389	37.54
707.419	45.54
707.449	163.54
707.48	61.54
707.51	43.54
707.54	131.54
707.57	-32.46
707.6	-3.46
707.63	87.54
707.661	137.54
707.691	111.54
707.721	69.54
707.751	59.54
707.781	73.54
707.811	91.54
707.842	61.54
707.872	33.54
707.902	-3.46
707.932	57.54
707.962	68.54
707.992	53.54
708.022	23.54
708.052	164.54
708.083	82.54
708.113	92.54
708.143	153.54
708.173	157.54
708.203	67.54
708.233	62.54
708.263	105.54
708.293	98.54
708.323	16.54
708.353	122.54
708.384	84.54
708.414	85.54
708.444	53.54
708.474	135.54
708.504	88.54
708.534	84.54
708.564	67.54
708.594	124.54
708.624	90.54
708.654	54.54
708.684	2.54
708.714	133.54
708.744	76.54
708.774	79.54
708.804	83.54
708.835	25.54
708.865	162.54
708.895	118.54
708.925	109.54
708.955	56.54
708.985	53.54
709.015	70.54
709.045	70.54
709.075	65.54
709.105	50.54
709.135	123.54
709.165	35.54
709.195	95.54
709.225	140.54
709.255	162.54
709.285	148.54
709.315	12.54
709.345	56.54
709.375	2.54
709.405	-8.46
709.435	91.54
709.465	87.54
709.495	59.54
709.525	-2.46
709.555	46.54
709.585	137.54
709.615	46.54
709.645	42.54
709.675	55.54
709.705	59.54
709.734	2.54
709.764	73.54
709.794	51.54
709.824	46.54
709.854	27.54
709.884	57.54
709.914	-3.46
709.944	116.54
709.974	58.54
710.004	57.54
710.034	12.54
710.064	105.54
710.094	110.54
710.124	48.54
710.154	79.54
710.183	99.54
710.213	41.54
710.243	101.54
710.273	87.54
710.303	24.54
710.333	67.54
710.363	38.54
710.393	80.54
710.423	42.54
710.453	97.54
710.482	109.54
710.512	92.54
710.542	73.54
710.572	93.54
710.602	38.54
710.632	123.54
710.662	82.54
710.692	162.54
710.721	37.54
710.751	51.54
710.781	-18.46
710.811	60.54
710.841	-44.46
710.871	47.54
710.901	81.54
710.93	27.54
710.96	35.54
710.99	105.54
711.02	27.54
711.05	177.54
711.08	4.54
711.109	129.54
711.139	57.54
711.169	75.54
711.199	54.54
711.229	22.54
711.258	80.54
711.288	27.54
711.318	87.54
711.348	111.54
711.378	4.54
711.407	144.54
711.437	90.54
711.467	51.54
711.497	131.54
711.527	68.54
711.556	108.54
711.586	76.54
711.616	90.54
711.646	114.54
711.675	23.54
711.705	52.54
711.735	97.54
711.765	189.54
711.794	76.54
711.824	78.54
711.854	63.54
711.884	35.54
711.913	57.54
711.943	179.54
711.973	120.54
712.003	85.54
712.032	133.54
712.062	18.54
712.092	27.54
712.122	86.54
712.151	49.54
712.181	78.54
712.211	96.54
712.24	122.54
712.27	161.54
712.3	98.54
712.33	86.54
712.359	130.54
712.389	93.54
712.419	123.54
712.448	151.54
712.478	93.54
712.508	74.54
712.537	183.54
712.567	82.54
712.597	133.54
712.626	86.54
712.656	133.54
712.686	89.54
712.715	158.54
712.745	31.54
712.775	134.54
712.804	117.54
712.834	57.54
712.864	33.54
712.893	113.54
712.923	12.54
712.953	155.54
712.982	118.54
713.012	179.54
713.042	153.54
713.071	49.54
713.101	116.54
713.13	62.54
713.16	120.54
713.19	247.54
713.219	148.54
713.249	156.54
713.278	83.54
713.308	128.54
713.338	40.54
713.367	34.54
713.397	86.54
713.426	165.54
713.456	153.54
713.486	124.54
713.515	84.54
713.545	130.54
713.574	219.54
713.604	51.54
713.634	167.54
713.663	66.54
713.693	102.54
713.722	147.54
713.752	102.54
713.781	150.54
713.811	156.54
713.84	140.54
713.87	91.54
713.9	145.54
713.929	130.54
713.959	127.54
713.988	132.54
714.018	59.54
714.047	177.54
714.077	141.54
714.106	75.54
714.136	86.54
714.165	129.54
714.195	200.54
714.224	124.54
714.254	107.54
714.283	130.54
714.313	109.54
714.342	125.54
714.372	127.54
714.401	147.54
714.431	56.54
714.46	132.54
714.49	166.54
714.519	65.54
714.549	128.54
714.578	208.54
714.608	68.54
714.637	101.54
714.667	141.54
714.696	172.54
714.726	164.54
714.755	43.54
714.785	162.54
714.814	208.54
714.844	132.54
714.873	47.54
714.902	160.54
714.932	148.54
714.961	235.54
714.991	35.54
715.02	76.54
715.05	19.54
715.079	114.54
715.108	-21.46
715.138	90.54
715.167	93.54
715.197	64.54
715.226	114.54
715.256	172.54
715.285	56.54
715.314	60.54
715.344	132.54
715.373	115.54
715.403	194.54
715.432	67.54
715.461	62.54
715.491	4.54
715.52	23.54
715.549	242.54
715.579	117.54
715.608	101.54
715.638	85.54
715.667	104.54
715.696	15.54
715.726	110.54
715.755	192.54
715.784	133.54
715.814	256.54
715.843	125.54
715.873	110.54
715.902	137.54
715.931	107.54
715.961	190.54
715.99	89.54
716.019	104.54
716.049	104.54
716.078	61.54
716.107	33.54
716.137	128.54
716.166	69.54
716.195	124.54
716.224	49.54
716.254	96.54
716.283	47.54
716.312	29.54
716.342	135.54
716.371	82.54
716.4	119.54
716.43	89.54
716.459	147.54
716.488	107.54
716.517	110.54
716.547	126.54
716.576	117.54
716.605	150.54
716.635	165.54
716.664	52.54
716.693	117.54
716.722	87.54
716.752	77.54
716.781	98.54
716.81	16.54
716.839	68.54
716.869	130.54
716.898	127.54
716.927	109.54
716.956	76.54
716.986	141.54
717.015	61.54
717.044	39.54
717.073	23.54
717.103	94.54
717.132	60.54
717.161	160.54
717.19	143.54
717.219	138.54
717.249	166.54
717.278	156.54
717.307	122.54
717.336	63.54
717.365	38.54
717.395	161.54
717.424	135.54
717.453	62.54
717.482	81.54
717.511	25.54
717.541	125.54
717.57	-2.46
717.599	48.54
717.628	19.54
717.657	84.54
717.686	51.54
717.716	20.54
717.745	36.54
717.774	112.54
717.803	92.54
717.832	72.54
717.861	171.54
717.891	175.54
717.92	135.54
717.949	19.54
717.978	59.54
718.007	152.54
718.036	39.54
718.065	244.54
718.095	91.54
718.124	78.54
718.153	66.54
718.182	33.54
718.211	-16.46
718.24	123.54
718.269	99.54
718.298	141.54
718.327	99.54
718.357	136.54
718.386	94.54
718.415	38.54
718.444	186.54
718.473	83.54
718.502	97.54
718.531	164.54
718.56	21.54
718.589	114.54
718.618	34.54
718.647	51.54
718.676	-18.46
718.706	193.54
718.735	65.54
718.764	193.54
718.793	114.54
718.822	158.54
718.851	79.54
718.88	10.54
718.909	38.54
718.938	89.54
718.967	84.54
718.996	141.54
719.025	97.54
719.054	67.54
719.083	183.54
719.112	91.54
719.141	133.54
719.17	42.54
719.199	46.54
719.228	37.54
719.257	102.54
719.286	71.54
719.315	57.54
719.344	202.54
719.373	15.54
719.402	76.54
719.431	100.54
719.46	118.54
719.489	106.54
719.518	95.54
719.547	53.54
719.576	125.54
719.605	147.54
719.634	160.54
719.663	121.54
719.692	32.54
719.721	60.54
719.75	86.54
719.779	162.54
719.808	69.54
719.837	113.54
719.866	56.54
719.895	118.54
719.924	173.54
719.953	135.54
719.981	24.54
720.01	111.54
720.039	109.54
720.068	107.54
720.097	31.54
720.126	98.54
720.155	11.54
720.184	88.54
720.213	139.54
720.242	125.54
720.271	34.54
720.3	105.54
720.328	97.54
720.357	91.54
720.386	12.54
720.415	129.54
720.444	41.54
720.473	133.54
720.502	95.54
720.531	34.54
720.56	168.54
720.588	76.54
720.617	91.54
720.646	47.54
720.675	8.54
720.704	75.54
720.733	12.54
720.762	111.54
720.79	70.54
720.819	72.54
720.848	84.54
720.877	62.54
720.906	69.54
720.935	-25.46
720.964	65.54
720.992	95.54
721.021	86.54
721.05	75.54
721.079	84.54
721.108	30.54
721.136	80.54
721.165	72.54
721.194	20.54
721.223	179.54
721.252	80.54
721.281	176.54
721.309	110.54
721.338	83.54
721.367	41.54
721.396	143.54
721.424	33.54
721.453	11.54
721.482	176.54
721.511	137.54
721.54	82.54
721.568	179.54
721.597	107.54
721.626	20.54
721.655	81.54
721.683	120.54
721.712	162.54
721.741	85.54
721.77	165.54
721.798	162.54
721.827	212.54
721.856	89.54
721.885	105.54
721.913	74.54
721.942	159.54
